LabVIEW Measurement	
Writer_Version	2
Reader_Version	2
Separator	Tab
Decimal_Separator	.
Multi_Headings	No
X_Columns	One
Time_Pref	Absolute
Operator	trimgus
Date	2022/03/22
Time	13:36:05.5685205459594726563
***End_of_Header***	
	
Notes	X values guaranteed valid only for Extensometer Displacement-mm (Mean)				
Channels	4				
Samples	1	1	1	1	
Date	2022/03/22	2022/03/22	2022/03/22	2022/03/22	
Time	13:36:05.5685205459594726563	13:36:05.5685205459594726563	13:36:05.5685205459594726563	13:36:05.5725421905517578125	
Y_Unit_Label	Volts	Volts	Volts	Volts	
X_Dimension	Time	Time	Time	Time	
X0	0.0000000000000000E+0	0.0000000000000000E+0	0.0000000000000000E+0	9.9000000000000005E-2	
Delta_X	0.100000	0.100000	0.100000	0.100000	
***End_of_Header***					
X_Value	Extensometer Displacement-mm (Mean)	Force-N (Mean)	Global Displacement-mm (Mean)	Global Displacement-mm (Mean) 1	Comment
0.000000	-0.005323	-1.640076	0.009948	0.054384
0.100000	-0.006753	0.692550	-0.001590	0.009281
0.200000	-0.007368	2.206684	0.005696	-0.049077
0.300000	-0.004061	-1.252847	-0.001890	-0.110200
0.400000	-0.014804	1.849710	-0.008813	-0.089049
0.500000	0.002897	-1.466087	0.000902	0.005671
0.600000	-0.003264	-2.218610	0.002086	-0.004975
0.700000	-0.005073	-1.334649	-0.008827	-0.067337
0.800000	-0.001636	0.639599	-0.002944	0.000129
0.900000	-0.004005	-1.141251	-0.011204	-0.013929
1.000000	-0.005328	1.735192	0.004328	-0.029237
1.100000	-0.001586	0.757957	0.006895	0.034926
1.200000	-0.003322	2.962823	0.009493	0.019664
1.300000	-0.012016	4.675418	0.017368	0.066498
1.400000	-0.009443	6.936260	0.015566	0.096622
1.500000	0.003525	7.828022	0.032324	0.125744
1.600000	-0.004855	11.218435	0.072900	0.275875
1.700000	0.002401	13.730698	0.087867	0.372368
1.800000	0.007035	14.352709	0.126457	0.504504
1.900000	-0.002177	8.631797	0.120374	0.519049
2.000000	-0.004525	7.009459	0.114277	0.431175
2.100000	-0.001996	6.432317	0.123686	0.457405
2.200000	-0.002869	6.052012	0.117340	0.423855
2.300000	-0.005291	6.144532	0.129068	0.439995
2.400000	-0.004174	7.979276	0.130015	0.456305
2.500000	-0.000116	10.973197	0.140046	0.414551
2.600000	0.003613	18.674314	0.162383	0.356462
2.700000	-0.007794	21.961112	0.194494	0.414982
2.800000	-0.006478	25.275676	0.224453	0.388615
2.900000	-0.003543	31.996967	0.249965	0.502300
3.000000	-0.003019	44.071696	0.279677	0.649554
3.100000	0.001517	51.942395	0.307965	0.720369
3.200000	0.001146	62.664067	0.343878	0.883783
3.300000	-0.003341	75.850934	0.380911	0.987575
3.400000	0.004492	81.345235	0.422769	1.139291
3.500000	0.003963	86.399446	0.457037	1.246356
3.600000	-0.003257	94.787145	0.476926	1.231820
3.700000	0.003629	104.724995	0.518647	1.274768
3.800000	-0.005871	109.292247	0.539960	1.243728
3.900000	0.008866	119.527542	0.593735	1.338169
4.000000	0.004150	130.563192	0.624540	1.358791
4.100000	-0.000206	142.877268	0.645582	1.329276
4.200000	0.003340	157.914245	0.684137	1.334717
4.300000	0.006931	170.355994	0.717389	1.323926
4.400000	0.002492	178.862963	0.751417	1.293796
4.500000	0.011937	188.352583	0.797745	1.335636
4.600000	-0.000395	202.086532	0.831220	1.391269
4.700000	-0.000735	219.879648	0.876055	1.403173
4.800000	0.010098	235.931614	0.915689	1.468595
4.900000	0.009036	244.356394	0.977638	1.520757
5.000000	0.006736	255.533454	0.999484	1.467900
5.100000	0.008777	265.192532	1.058719	1.619567
5.200000	0.001515	276.816703	1.072931	1.529251
5.300000	0.007119	288.420308	1.107994	1.538354
5.400000	0.011446	299.853266	1.155974	1.582525
5.500000	0.004636	315.053585	1.223532	1.673687
5.600000	0.008640	335.678509	1.245786	1.626854
5.700000	0.011296	349.327080	1.291392	1.632288
5.800000	0.015205	361.546449	1.335091	1.655853
5.900000	0.009361	371.168907	1.374504	1.549063
6.000000	0.011157	382.029694	1.407082	1.603820
6.100000	0.006766	391.326481	1.435665	1.488732
6.200000	0.009906	399.385360	1.481949	1.605667
6.300000	0.008618	408.147831	1.487097	1.485793
6.400000	0.013038	418.260468	1.528189	1.463185
6.500000	0.016235	431.666502	1.578954	1.399925
6.600000	0.011872	441.466461	1.611421	1.439721
6.700000	0.014870	455.891296	1.633991	1.349838
6.800000	0.009329	464.365427	1.685548	1.369896
6.900000	0.006966	472.692376	1.724697	1.379516
7.000000	0.020024	472.219922	1.746549	1.335114
7.100000	0.015994	468.138293	1.784472	1.373087
7.200000	0.019848	485.145503	1.827126	1.349882
7.300000	0.015717	496.562928	1.845800	1.407011
7.400000	0.013638	509.034196	1.902399	1.470774
7.500000	0.016653	518.991681	1.923870	1.358840
7.600000	0.005137	532.777180	1.954562	1.353639
7.700000	0.016436	542.429452	1.993589	1.408724
7.800000	0.027134	554.995890	2.034322	1.371898
7.900000	0.011467	568.314711	2.067901	1.352337
8.000000	0.016771	579.972061	2.125454	1.482558
8.100000	0.023293	589.580047	2.154271	1.443891
8.200000	0.026698	597.263295	2.187113	1.421840
8.300000	0.032350	606.870059	2.207228	1.426375
8.400000	0.033379	619.509849	2.256476	1.393801
8.500000	0.044247	629.316195	2.301329	1.475958
8.600000	0.056818	638.865569	2.331690	1.474581
8.700000	0.063950	643.905005	2.349520	1.402440
8.800000	0.085910	649.786558	2.412280	1.483685
8.900000	0.094314	647.713080	2.427342	1.419099
9.000000	0.101921	654.189157	2.445725	1.259355
9.100000	0.120531	663.095773	2.495079	1.342788
9.200000	0.138417	666.488007	2.515958	1.291881
9.300000	0.154386	672.276112	2.566034	1.399957
9.400000	0.170018	677.509854	2.597852	1.346632
9.500000	0.190666	680.422355	2.614031	1.235335
9.600000	0.206658	684.151220	2.659672	1.287557
9.700000	0.229206	685.741608	2.691962	1.348551
9.800000	0.238487	690.177824	2.690962	1.100745
9.900000	0.250531	694.127683	2.721012	1.144244
10.000000	0.266174	700.163518	2.744704	1.181249
10.100000	0.281467	706.084676	2.753583	1.012806
10.200000	0.288024	711.855191	2.803338	1.127455
10.300000	0.297069	720.883817	2.816560	0.992923
10.400000	0.311097	724.800754	2.830729	0.916259
10.500000	0.327613	730.186139	2.886187	1.064228
10.600000	0.340044	735.128267	2.908246	0.979111
10.700000	0.341182	735.908824	2.914625	0.875290
10.800000	0.351515	724.973756	2.935595	0.967588
10.900000	0.353224	718.143591	2.945875	0.884215
11.000000	0.355445	712.101229	2.971767	0.891306
11.100000	0.357052	709.336153	2.953801	0.789901
11.200000	0.359055	707.630101	2.964532	0.644605
11.300000	0.361145	708.136945	2.952198	0.533786
11.400000	0.356611	702.928331	2.950799	0.464039
11.500000	0.362755	702.345190	2.947624	0.255585
11.600000	0.344365	701.554961	2.962265	0.215222
11.700000	0.361171	702.242363	2.960879	0.184578
11.800000	0.426335	701.232068	2.971234	0.132893
11.900000	0.387810	701.417302	2.970565	0.106410
12.000000	0.341326	699.570868	2.969185	-0.014185
12.100000	-0.914796	698.793487	2.973447	0.079766
12.200000	-2.211825	696.562701	2.957952	-0.027913
12.300000	-3.621330	698.723842	2.975587	0.091285
12.400000	-3.653221	697.440740	2.976072	0.105723
12.500000	-3.863254	694.302427	2.982292	0.125439
12.600000	-4.237425	694.432091	2.972756	0.048273
12.700000	-4.278503	693.747818	2.984217	0.093219
12.800000	-4.475406	692.575608	2.981777	0.043964
12.900000	-5.125399	692.592098	2.980009	0.028302
13.000000	-5.610356	691.647563	2.982906	0.060710
13.100000	-5.744628	692.388263	2.986679	0.053496
13.200000	-5.764938	692.134175	2.970649	0.043410
13.300000	-5.735604	689.636731	2.989159	0.055527
13.400000	-5.735568	689.430861	2.999948	0.088131
13.500000	-5.763057	688.716319	2.970434	-0.033966
13.600000	-5.878682	691.541586	2.979920	0.018190
13.700000	-6.228984	690.915236	2.986440	0.015594
13.800000	-6.395039	689.613156	2.976769	-0.023503
13.900000	-6.392700	687.707446	2.974756	-0.015177
14.000000	-6.317657	690.534185	2.968675	-0.058954
14.100000	-6.225447	689.191147	2.967812	-0.076724
14.200000	-6.234933	687.698997	2.964785	-0.020503
14.300000	-6.227445	691.086290	2.974984	-0.055695
14.400000	-6.197270	688.661535	2.982732	-0.063160
14.500000	-6.142630	689.503855	2.957047	-0.062876
14.600000	-6.160537	691.829031	2.972426	-0.021844
14.700000	-6.156535	689.098704	2.969112	-0.072053
14.800000	-6.139281	688.379438	2.981630	0.018061
14.900000	-6.135119	689.545513	2.976147	0.008253
15.000000	-4.593524	689.324933	2.985406	0.064674
15.100000	0.745846	689.023207	2.961060	-0.024175
15.200000	0.223567	687.741581	2.996921	0.120474
15.300000	-0.368181	687.820804	2.988420	0.056231
15.400000	-0.535787	686.202862	2.982395	0.000693
15.500000	-0.733610	688.596644	2.981053	0.097693
15.600000	-0.850711	688.444996	2.980959	0.024745
15.700000	-0.873750	687.793476	2.972840	0.022120
15.800000	-0.896821	688.140117	2.982956	0.001168
15.900000	-0.932813	686.243606	2.972758	-0.022052
16.000000	-0.947311	690.228788	2.994656	0.042460
16.100000	-0.930116	687.825021	2.961747	0.005855
16.200000	-0.921471	687.623747	2.979013	-0.067421
16.300000	-0.938359	687.774756	2.982040	-0.027180
16.400000	-0.953002	686.623802	2.989580	0.027701
16.500000	-0.991820	687.803610	2.980238	-0.006427
16.600000	-1.010555	687.175832	2.981185	0.012170
16.700000	-1.010449	687.121935	2.978753	0.006514
16.800000	-1.020040	687.626473	2.973179	-0.027188
16.900000	-1.055873	687.893948	2.972912	0.001661
17.000000	-0.741591	686.409812	2.985726	-0.042329
17.100000	-0.447901	686.057977	2.980073	0.071350
17.200000	0.004467	684.169143	2.972162	-0.020607
17.300000	0.157036	685.452674	2.984216	0.010384
17.400000	0.142053	685.872073	2.970892	-0.074349
17.500000	0.028627	686.617258	2.977765	-0.008535
17.600000	0.069135	686.236735	2.972368	-0.041294
17.700000	0.078373	688.024964	2.980188	0.007653
17.800000	0.043908	688.148684	2.971803	-0.005089
17.900000	0.041236	688.143477	2.971540	-0.008157
18.000000	0.067931	688.432406	2.977303	-0.021675
18.100000	0.088675	688.493278	2.985438	0.010746
18.200000	0.083557	686.853185	2.969039	-0.009710
18.300000	0.067531	686.591170	2.978244	-0.025788
18.400000	0.075095	687.369459	2.978044	0.027095
18.500000	0.056394	684.141632	2.973808	-0.014407
18.600000	0.039457	685.200457	2.978317	0.025119
18.700000	0.067510	687.539785	2.982567	0.013452
18.800000	0.060899	686.073000	2.984324	0.039567
18.900000	0.048520	685.454031	2.984348	0.060477
19.000000	0.063749	686.493241	2.975059	-0.015810
19.100000	0.078143	684.906260	2.972629	-0.041259
19.200000	0.071330	685.165225	2.983974	0.046767
19.300000	0.069177	686.800010	2.980675	0.016583
19.400000	0.067096	685.656975	2.968453	-0.037177
19.500000	0.068341	686.035583	2.968312	-0.024537
19.600000	0.075277	682.432946	2.980211	0.005571
19.700000	0.077735	687.206351	2.991076	0.031751
19.800000	0.064549	685.809228	2.979236	-0.012730
19.900000	0.074513	688.098238	2.983934	-0.005211
20.000000	0.064872	685.810285	2.980904	0.024286
20.100000	0.066543	687.136387	2.971495	-0.013951
20.200000	0.072373	691.974110	2.975159	-0.022053
20.300000	0.077592	715.941565	2.968524	-0.055784
20.400000	0.073235	749.694541	3.007828	0.148761
20.500000	0.077922	768.975718	3.055187	0.340575
20.600000	0.073808	780.141042	3.069879	0.349869
20.700000	0.064674	790.019208	3.108817	0.461471
20.800000	0.075565	793.417714	3.156486	0.681003
20.900000	0.076069	798.887690	3.175032	0.756180
21.000000	0.066020	801.491452	3.208451	0.886112
21.100000	0.071631	811.241287	3.243564	1.064149
21.200000	0.071467	816.600570	3.270975	1.155175
21.300000	0.068580	823.888724	3.308641	1.340349
21.400000	0.078660	832.477314	3.349031	1.335465
21.500000	0.076226	842.856449	3.380601	1.274936
21.600000	0.067112	854.045556	3.442788	1.462984
21.700000	0.072943	854.678783	3.477757	1.444646
21.800000	0.073847	861.287763	3.518383	1.431891
21.900000	0.080089	870.367467	3.562317	1.510787
22.000000	0.072624	876.178698	3.599310	1.533940
22.100000	0.069472	882.785636	3.626226	1.510772
22.200000	0.073829	885.709804	3.679478	1.603501
22.300000	0.069941	895.413953	3.712117	1.577108
22.400000	0.071456	902.572855	3.766336	1.648433
22.500000	0.072757	905.001823	3.806860	1.669788
22.600000	0.067776	905.943108	3.845737	1.581149
22.700000	0.069625	910.217126	3.872522	1.558037
22.800000	0.071850	914.283193	3.890646	1.463931
22.900000	0.073171	914.378051	3.912398	1.379035
23.000000	0.070144	921.202903	3.967584	1.449177
23.100000	0.070977	926.592611	3.996038	1.446016
23.200000	0.074213	934.811114	4.033985	1.395278
23.300000	0.071644	937.895747	4.084983	1.463713
23.400000	0.066995	947.817097	4.144205	1.486389
23.500000	0.067764	949.254563	4.169622	1.429203
23.600000	0.069771	955.240889	4.196554	1.378755
23.700000	0.064336	958.866659	4.245044	1.459434
23.800000	0.068884	963.227583	4.288274	1.552626
23.900000	0.077079	966.424395	4.338905	1.676993
24.000000	0.073350	970.011875	4.371652	1.589478
24.100000	0.074540	975.616875	4.386312	1.537824
24.200000	0.078993	981.007143	4.426794	1.536325
24.300000	0.074458	987.450063	4.480805	1.564586
24.400000	0.066169	994.059871	4.524839	1.489897
24.500000	0.078840	996.343604	4.572612	1.576722
24.600000	0.066133	1000.627028	4.616809	1.660433
24.700000	0.074077	1004.711296	4.638534	1.545692
24.800000	0.072434	1005.248061	4.678327	1.536231
24.900000	0.072088	1010.136831	4.728768	1.535706
25.000000	0.072678	1011.530143	4.750303	1.486193
25.100000	0.077875	1015.272102	4.772663	1.514618
25.200000	0.066003	1018.025231	4.817482	1.539048
25.300000	0.067223	1019.043037	4.866545	1.512680
25.400000	0.081093	1028.430340	4.874899	1.377854
25.500000	0.077755	1035.903340	4.914938	1.357422
25.600000	0.074168	1036.841084	4.961413	1.344295
25.700000	0.074192	1037.900263	4.990531	1.381563
25.800000	0.067650	1044.866130	5.030712	1.383218
25.900000	0.075245	1046.883422	5.054245	1.270870
26.000000	0.075860	1050.154555	5.124916	1.475597
26.100000	0.075922	1050.746380	5.130922	1.413069
26.200000	0.068909	1051.230863	5.153236	1.316063
26.300000	0.061671	1057.820152	5.209592	1.353215
26.400000	0.073867	1063.125384	5.231749	1.402958
26.500000	0.080918	1065.274059	5.243048	1.285138
26.600000	0.075880	1064.524119	5.281175	1.263183
26.700000	0.072388	1066.386519	5.288261	1.170224
26.800000	0.072658	1068.615622	5.342899	1.230401
26.900000	0.079243	1069.481447	5.371060	1.252401
27.000000	0.068380	1076.276549	5.399791	1.075376
27.100000	0.075514	1076.722618	5.424938	1.146244
27.200000	0.074563	1079.606911	5.456841	1.200495
27.300000	0.064091	1081.586387	5.489229	1.096510
27.400000	0.073199	1084.929263	5.514269	1.105568
27.500000	0.078780	1087.180665	5.554552	1.226450
27.600000	0.072667	1089.380467	5.562492	1.105430
27.700000	0.070767	1095.504571	5.597039	1.214416
27.800000	0.073955	1094.073205	5.617233	1.079425
27.900000	0.071251	1096.587297	5.647667	1.086703
28.000000	0.068562	1100.409764	5.669848	1.059156
28.100000	0.073513	1103.800314	5.719476	1.162853
28.200000	0.072778	1104.346499	5.735139	1.089732
28.300000	0.071632	1108.251183	5.759642	1.066052
28.400000	0.071533	1108.278842	5.787968	1.077502
28.500000	0.063603	1110.837837	5.818286	1.036735
28.600000	0.068710	1115.092360	5.830186	1.047713
28.700000	0.072074	1118.896833	5.899262	1.185443
28.800000	0.071977	1121.228627	5.937606	1.255974
28.900000	0.073787	1118.793899	5.948602	1.185347
29.000000	0.072303	1125.350165	5.982137	1.226319
29.100000	0.070006	1125.862717	6.021904	1.191857
29.200000	0.068596	1114.025414	6.047994	1.226437
29.300000	0.071505	1119.723097	6.075119	1.234531
29.400000	0.077381	1128.051308	6.122313	1.313446
29.500000	0.072840	1133.408815	6.144211	1.279468
29.600000	0.068958	1134.049030	6.183767	1.389757
29.700000	0.067678	1134.647644	6.223549	1.276232
29.800000	0.071103	1137.222543	6.234303	1.169953
29.900000	0.067852	1140.252115	6.282120	1.304158
30.000000	0.069342	1144.061274	6.311033	1.291156
30.100000	0.073545	1146.787851	6.351661	1.293921
30.200000	0.073413	1145.172599	6.378160	1.300530
30.300000	0.079689	1147.242044	6.439300	1.427753
30.400000	0.083229	1150.679672	6.456124	1.312710
30.500000	0.072873	1153.309477	6.462867	1.253482
30.600000	0.076976	1156.530533	6.527576	1.353834
30.700000	0.075192	1155.776502	6.556858	1.307069
30.800000	0.069335	1157.791448	6.591386	1.400141
30.900000	0.077913	1160.505712	6.617902	1.320617
31.000000	0.076518	1162.538945	6.640744	1.298504
31.100000	0.075568	1166.542015	6.702472	1.375484
31.200000	0.069276	1167.137931	6.728204	1.373678
31.300000	0.080017	1164.092009	6.774905	1.319394
31.400000	0.083899	1168.264552	6.815671	1.411158
31.500000	0.074967	1172.990247	6.826393	1.428987
31.600000	0.066650	1170.887616	6.871681	1.349548
31.700000	0.072220	1171.715370	6.912364	1.400683
31.800000	0.073658	1173.813984	6.941242	1.371182
31.900000	0.074241	1176.880321	6.969734	1.387325
32.000000	0.070521	1176.167278	7.019664	1.485566
32.100000	0.062831	1178.856704	7.040994	1.335001
32.200000	0.069036	1177.009035	7.054671	1.283599
32.300000	0.077628	1178.161187	7.111569	1.323408
32.400000	0.064936	1184.497016	7.145034	1.292841
32.500000	0.064451	1187.058166	7.181887	1.394639
32.600000	0.070715	1186.972476	7.217419	1.363909
32.700000	0.077841	1185.820066	7.247455	1.309754
32.800000	0.071094	1187.227761	7.285053	1.349544
32.900000	0.072459	1188.896165	7.326169	1.399571
33.000000	0.077250	1190.852225	7.361648	1.354614
33.100000	0.070663	1197.148023	7.411438	1.444811
33.200000	0.071736	1193.866921	7.442092	1.524271
33.300000	0.070026	1190.783722	7.455705	1.354713
33.400000	0.073032	1191.460558	7.484350	1.333384
33.500000	0.073937	1191.626896	7.500478	1.258355
33.600000	0.074832	1196.689046	7.531094	1.226180
33.700000	0.070787	1200.018803	7.579544	1.313625
33.800000	0.076133	1198.074329	7.596147	1.220468
33.900000	0.070977	1198.820510	7.632786	1.208577
34.000000	0.076457	1202.471948	7.639269	1.082412
34.100000	0.069637	1208.610661	7.677002	1.052403
34.200000	0.076366	1211.512681	7.723142	1.100934
34.300000	0.076182	1205.600963	7.766428	1.217087
34.400000	0.069988	1209.271289	7.787388	1.193285
34.500000	0.064231	1209.312978	7.832372	1.294361
34.600000	0.066228	1213.769834	7.857734	1.293415
34.700000	0.066533	1216.804898	7.895732	1.236101
34.800000	0.072549	1214.468512	7.930456	1.311859
34.900000	0.078719	1215.338106	7.963348	1.302866
35.000000	0.074287	1215.611980	8.003709	1.421023
35.100000	0.069450	1213.701751	8.024499	1.369697
35.200000	0.071048	1214.989887	8.066805	1.354634
35.300000	0.076562	1215.525616	8.085044	1.254462
35.400000	0.079290	1215.678031	8.129111	1.341061
35.500000	0.076213	1216.425847	8.147704	1.246803
35.600000	0.080323	1220.571145	8.176292	1.242067
35.700000	0.068367	1222.438890	8.216549	1.265468
35.800000	0.071421	1225.627933	8.221235	1.151772
35.900000	0.073155	1224.763207	8.267640	1.186465
36.000000	0.069640	1223.373939	8.312687	1.214780
36.100000	0.071610	1223.060877	8.327209	1.193005
36.200000	0.073722	1223.251486	8.340950	1.071192
36.300000	0.062917	1227.222060	8.380265	1.163612
36.400000	0.075627	1227.426375	8.414027	1.121890
36.500000	0.074507	1229.612736	8.428618	1.099944
36.600000	0.072608	1227.436730	8.441468	1.043268
36.700000	0.078184	1229.995781	8.498143	1.105171
36.800000	0.069027	1231.740587	8.520033	1.178175
36.900000	0.067863	1231.050158	8.567978	1.174457
37.000000	0.066140	1232.725488	8.572431	1.031366
37.100000	0.071162	1228.985283	8.600251	1.067249
37.200000	0.074787	1230.848118	8.631682	1.144451
37.300000	0.063838	1235.058198	8.653675	1.077898
37.400000	0.069612	1234.671674	8.701498	1.120384
37.500000	0.071704	1235.358390	8.737160	1.209986
37.600000	0.069278	1238.326270	8.759455	1.255081
37.700000	0.074570	1239.153732	8.795036	1.166184
37.800000	0.075884	1237.885494	8.830812	1.215216
37.900000	0.070946	1238.440586	8.883889	1.241778
38.000000	0.066226	1239.516803	8.895741	1.269701
38.100000	0.070691	1240.540424	8.932945	1.302123
38.200000	0.072059	1242.634650	8.964363	1.315821
38.300000	0.079004	1242.441561	8.989710	1.313413
38.400000	0.075837	1243.135499	9.034651	1.310722
38.500000	0.068853	1245.179718	9.082964	1.354546
38.600000	0.063307	1245.065880	9.133809	1.469104
38.700000	0.073539	1250.824210	9.172349	1.478690
38.800000	0.074596	1252.238626	9.231881	1.574420
38.900000	0.069422	1248.514951	9.266540	1.511744
39.000000	0.073584	1250.794269	9.307631	1.617264
39.100000	0.074631	1248.778092	9.347808	1.633856
39.200000	0.072288	1244.844779	9.368454	1.572052
39.300000	0.066638	1245.669604	9.403601	1.631514
39.400000	0.072248	1243.936937	9.423581	1.534875
